File: data/DSC-TGA/coated-laser.csv
Filename,MLCS 8485 laser coated
Instrument name,SDT 1 LEFT (192.168.0.183)
Operator,dAA
rundate,10/24/2023
Sample name,MLCS 8485 laser coated
proceduresegments,Data Off ; Select Gas: Gas 2 ; Balance Flow 100 mL/min; Mass Flow  100.00 mL/min; Isothermal 10.0 min; Data On ; Ramp 10.00 °C/min to 500.00 °C; Data Off
[step]
Ramp 10.00 °C/min to 500.00 °C
Time,Temperature,Heat Flow (Normalized),Weight
min,°C,W/g,%
0.00,30.06,-0.020,99.650
0.16,30.05,-0.020,99.646
0.32,30.04,-0.019,99.642
0.48,30.04,-0.019,99.638
0.63,30.07,-0.018,99.635
0.79,30.25,-0.018,99.633
0.95,30.65,-0.028,99.631
1.11,31.28,-0.053,99.621
1.27,32.17,-0.083,99.602
1.43,33.31,-0.117,99.586
1.58,34.67,-0.150,99.574
1.74,36.22,-0.181,99.565
1.90,37.88,-0.215,99.557
2.06,39.62,-0.251,99.551
2.22,41.39,-0.286,99.545
2.38,43.17,-0.319,99.539
2.53,44.93,-0.347,99.534
2.69,46.67,-0.369,99.528
2.85,48.37,-0.386,99.521
3.01,50.03,-0.396,99.514
3.17,51.66,-0.401,99.505
3.33,53.25,-0.402,99.495
3.48,54.82,-0.397,99.484
3.64,56.38,-0.388,99.472
3.80,57.92,-0.377,99.459
3.96,59.45,-0.363,99.444
4.12,60.99,-0.348,99.429
4.28,62.53,-0.333,99.411
4.43,64.07,-0.317,99.393
4.59,65.62,-0.302,99.374
4.75,67.18,-0.288,99.354
4.91,68.75,-0.275,99.332
5.07,70.32,-0.263,99.310
5.23,71.90,-0.252,99.288
5.38,73.48,-0.242,99.264
5.54,75.06,-0.232,99.239
5.70,76.65,-0.223,99.214
5.86,78.23,-0.215,99.188
6.02,79.82,-0.208,99.161
6.18,81.41,-0.201,99.134
6.33,82.99,-0.195,99.106
6.49,84.58,-0.189,99.077
6.65,86.16,-0.183,99.049
6.81,87.74,-0.178,99.019
6.97,89.33,-0.173,98.990
7.13,90.90,-0.168,98.960
7.28,92.48,-0.164,98.929
7.44,94.06,-0.160,98.899
7.60,95.64,-0.155,98.869
7.76,97.22,-0.151,98.839
7.92,98.79,-0.148,98.808
8.08,100.37,-0.145,98.778
8.23,101.95,-0.141,98.748
8.39,103.52,-0.138,98.718
8.55,105.10,-0.135,98.689
8.71,106.68,-0.132,98.660
8.87,108.26,-0.129,98.631
9.03,109.84,-0.126,98.602
9.18,111.42,-0.124,98.574
9.34,113.00,-0.121,98.547
9.50,114.58,-0.118,98.519
9.66,116.17,-0.115,98.493
9.82,117.75,-0.113,98.467
9.98,119.33,-0.110,98.441
10.13,120.91,-0.107,98.416
10.29,122.49,-0.104,98.392
10.45,124.07,-0.102,98.369
10.61,125.65,-0.099,98.346
10.77,127.23,-0.096,98.324
10.93,128.81,-0.093,98.303
11.08,130.39,-0.090,98.282
11.24,131.97,-0.087,98.262
11.40,133.55,-0.085,98.242
11.56,135.13,-0.082,98.223
11.72,136.70,-0.079,98.206
11.88,138.28,-0.076,98.188
12.03,139.86,-0.073,98.172
12.19,141.44,-0.070,98.156
12.35,143.02,-0.067,98.141
12.51,144.60,-0.063,98.126
12.67,146.18,-0.060,98.112
12.83,147.75,-0.057,98.098
12.98,149.33,-0.054,98.085
13.14,150.91,-0.051,98.073
13.30,152.49,-0.048,98.062
13.46,154.07,-0.044,98.050
13.62,155.64,-0.041,98.040
13.78,157.22,-0.038,98.029
13.93,158.80,-0.034,98.019
14.09,160.37,-0.031,98.010
14.25,161.95,-0.027,98.001
14.41,163.53,-0.024,97.992
14.57,165.10,-0.020,97.984
14.73,166.68,-0.017,97.976
14.88,168.26,-0.013,97.968
15.04,169.83,-0.010,97.961
15.20,171.41,-0.006,97.954
15.36,172.98,-0.002,97.947
15.52,174.56,0.001,97.940
15.68,176.14,0.004,97.934
15.83,177.71,0.008,97.927
15.99,179.29,0.011,97.921
16.15,180.86,0.015,97.914
16.31,182.44,0.018,97.908
16.47,184.01,0.022,97.902
16.63,185.59,0.025,97.896
16.78,187.16,0.029,97.890
16.94,188.74,0.032,97.884
17.10,190.31,0.036,97.877
17.26,191.89,0.040,97.871
17.42,193.46,0.043,97.864
17.58,195.04,0.046,97.857
17.73,196.61,0.050,97.850
17.89,198.19,0.053,97.843
18.05,199.76,0.056,97.836
18.21,201.34,0.059,97.828
18.37,202.92,0.063,97.820
18.53,204.49,0.066,97.812
18.68,206.07,0.069,97.804
18.84,207.65,0.072,97.795
19.00,209.23,0.075,97.786
19.16,210.81,0.079,97.776
19.32,212.38,0.082,97.765
19.48,213.96,0.085,97.754
19.63,215.54,0.088,97.743
19.79,217.12,0.091,97.731
19.95,218.69,0.094,97.718
20.11,220.27,0.098,97.704
20.27,221.85,0.101,97.689
20.43,223.43,0.105,97.674
20.58,225.00,0.108,97.657
20.74,226.58,0.111,97.640
20.90,228.16,0.115,97.621
21.06,229.73,0.119,97.600
21.22,231.31,0.122,97.578
21.38,232.89,0.126,97.555
21.53,234.46,0.129,97.529
21.69,236.04,0.133,97.502
21.85,237.62,0.138,97.473
22.01,239.20,0.141,97.441
22.17,240.78,0.145,97.406
22.33,242.36,0.149,97.369
22.48,243.94,0.153,97.328
22.64,245.52,0.157,97.284
22.80,247.10,0.160,97.236
22.96,248.67,0.165,97.183
23.12,250.25,0.169,97.126
23.28,251.83,0.173,97.063
23.43,253.41,0.177,96.994
23.59,254.99,0.181,96.920
23.75,256.57,0.186,96.838
23.91,258.15,0.190,96.748
24.07,259.73,0.195,96.644
24.23,261.31,0.199,96.523
24.38,262.89,0.204,96.385
24.54,264.47,0.209,96.237
24.70,266.05,0.214,96.076
24.86,267.63,0.218,95.902
25.02,269.21,0.223,95.710
25.18,270.79,0.228,95.510
25.33,272.38,0.234,95.298
25.49,273.96,0.239,95.071
25.65,275.54,0.245,94.829
25.81,277.13,0.252,94.571
25.97,278.71,0.258,94.298
26.13,280.30,0.264,94.008
26.28,281.88,0.270,93.702
26.44,283.46,0.276,93.379
26.60,285.05,0.284,93.039
26.76,286.63,0.290,92.683
26.92,288.22,0.297,92.311
27.08,289.80,0.304,91.924
27.23,291.39,0.311,91.521
27.39,292.97,0.319,91.105
27.55,294.56,0.326,90.672
27.71,296.15,0.334,90.225
27.87,297.73,0.341,89.761
28.03,299.32,0.349,89.279
28.18,300.91,0.357,88.778
28.34,302.50,0.365,88.254
28.50,304.09,0.374,87.702
28.66,305.68,0.382,87.120
28.82,307.26,0.392,86.501
28.98,308.86,0.401,85.841
29.13,310.45,0.411,85.133
29.29,312.04,0.421,84.371
29.45,313.63,0.432,83.548
29.61,315.22,0.444,82.657
29.77,316.82,0.456,81.692
29.93,318.41,0.470,80.651
30.08,320.01,0.485,79.533
30.24,321.61,0.504,78.338
30.40,323.21,0.524,77.076
30.56,324.82,0.549,75.761
30.72,326.44,0.579,74.413
30.88,328.06,0.614,73.066
31.03,329.69,0.657,71.756
31.19,331.33,0.706,70.520
31.35,332.97,0.759,69.394
31.51,334.62,0.811,68.406
31.67,336.25,0.861,67.557
31.83,337.89,0.904,66.844
31.98,339.51,0.943,66.249
32.14,341.13,0.978,65.757
32.30,342.75,1.016,65.346
32.46,344.38,1.062,64.995
32.62,346.02,1.115,64.691
32.78,347.66,1.172,64.425
32.93,349.31,1.229,64.188
33.09,350.97,1.297,63.967
33.25,352.64,1.380,63.753
33.41,354.33,1.473,63.541
33.57,356.01,1.562,63.330
33.73,357.67,1.633,63.122
33.88,359.31,1.683,62.917
34.04,360.92,1.711,62.716
34.20,362.50,1.722,62.517
34.36,364.08,1.723,62.319
34.52,365.64,1.713,62.122
34.68,367.20,1.701,61.926
34.83,368.76,1.688,61.729
34.99,370.32,1.676,61.533
35.15,371.89,1.666,61.336
35.31,373.46,1.658,61.137
35.47,375.03,1.651,60.937
35.63,376.60,1.646,60.736
35.78,378.18,1.642,60.533
35.94,379.76,1.640,60.329
36.10,381.34,1.638,60.124
36.26,382.92,1.636,59.919
36.42,384.50,1.634,59.713
36.58,386.08,1.633,59.507
36.73,387.66,1.632,59.301
36.89,389.24,1.631,59.096
37.05,390.83,1.631,58.890
37.21,392.41,1.631,58.683
37.37,393.99,1.630,58.479
37.53,395.57,1.631,58.275
37.68,397.15,1.632,58.071
37.84,398.74,1.633,57.868
38.00,400.32,1.634,57.666
38.16,401.90,1.634,57.464
38.32,403.49,1.634,57.261
38.48,405.07,1.635,57.060
38.63,406.66,1.635,56.860
38.79,408.24,1.636,56.662
38.95,409.83,1.636,56.465
39.11,411.41,1.636,56.269
39.27,412.99,1.635,56.075
39.43,414.58,1.634,55.882
39.58,416.16,1.633,55.690
39.74,417.74,1.631,55.501
39.90,419.32,1.628,55.311
40.06,420.90,1.624,55.123
40.22,422.48,1.620,54.936
40.38,424.06,1.615,54.750
40.53,425.63,1.610,54.565
40.69,427.21,1.604,54.381
40.85,428.79,1.597,54.196
41.01,430.37,1.591,54.011
41.17,431.94,1.583,53.828
41.33,433.52,1.575,53.643
41.48,435.09,1.567,53.458
41.64,436.67,1.559,53.273
41.80,438.24,1.549,53.087
41.96,439.82,1.542,52.899
42.12,441.39,1.532,52.709
42.28,442.97,1.523,52.518
42.43,444.54,1.515,52.320
42.59,446.12,1.507,52.121
42.75,447.70,1.500,51.921
42.91,449.27,1.492,51.719
43.07,450.85,1.485,51.511
43.23,452.43,1.479,51.300
43.38,454.01,1.473,51.087
43.54,455.59,1.469,50.868
43.70,457.16,1.459,50.643
43.86,458.74,1.454,50.411
44.02,460.32,1.451,50.173
44.18,461.91,1.452,49.923
44.33,463.50,1.455,49.576
44.49,465.10,1.469,49.325
44.65,466.70,1.483,49.053
44.81,468.29,1.494,48.774
44.97,469.89,1.505,48.486
45.13,471.49,1.519,48.183
45.28,473.08,1.534,47.873
45.44,474.69,1.555,47.547
45.60,476.30,1.581,47.194
45.76,477.91,1.608,46.843
45.92,479.52,1.639,46.477
46.08,481.14,1.672,46.094
46.23,482.76,1.704,45.700
46.39,484.38,1.739,45.281
46.55,485.99,1.767,44.861
46.71,487.60,1.793,44.429
46.87,489.20,1.816,43.994
47.03,490.81,1.839,43.549
47.18,492.42,1.862,43.098
47.34,,,42.655