File: data/DSC-TGA/coated-oven.csv
Filename,MLCS 8485 oven coated
Instrument name,SDT 1 LEFT (192.168.0.183)
Operator,dAA
rundate,10/24/2023
Sample name,MLCS 8485 oven coated
proceduresegments,Data Off ; Select Gas: Gas 2 ; Balance Flow 100 mL/min; Mass Flow  100.00 mL/min; Isothermal 10.0 min; Data On ; Ramp 10.00 °C/min to 500.00 °C; Data Off
[step]
Ramp 10.00 °C/min to 500.00 °C
Time,Temperature,Heat Flow (Normalized),Weight
min,°C,W/g,%
0.00,27.22,-0.004,99.595
0.16,27.21,-0.004,99.591
0.32,27.20,-0.004,99.587
0.48,27.20,-0.004,99.583
0.64,27.29,-0.003,99.580
0.80,27.58,-0.006,99.577
0.96,28.09,-0.026,99.572
1.12,28.86,-0.057,99.554
1.28,29.89,-0.093,99.534
1.44,31.17,-0.130,99.518
1.60,32.65,-0.166,99.507
1.76,34.28,-0.204,99.497
1.92,36.00,-0.246,99.489
2.08,37.77,-0.288,99.484
2.24,39.56,-0.326,99.479
2.40,41.34,-0.358,99.475
2.56,43.11,-0.382,99.470
2.72,44.85,-0.398,99.463
2.88,46.54,-0.409,99.456
3.04,48.20,-0.412,99.447
3.20,49.83,-0.412,99.437
3.36,51.43,-0.406,99.425
3.52,53.01,-0.396,99.412
3.68,54.58,-0.383,99.398
3.84,56.14,-0.369,99.382
4.00,57.69,-0.353,99.365
4.16,59.25,-0.338,99.347
4.32,60.81,-0.323,99.328
4.48,62.38,-0.309,99.308
4.64,63.95,-0.296,99.287
4.80,65.53,-0.284,99.264
4.96,67.11,-0.274,99.241
5.12,68.70,-0.263,99.217
5.28,70.29,-0.254,99.192
5.44,71.88,-0.246,99.166
5.60,73.48,-0.239,99.138
5.76,75.08,-0.232,99.111
5.92,76.68,-0.226,99.082
6.08,78.28,-0.221,99.052
6.24,79.87,-0.216,99.021
6.40,81.47,-0.211,98.989
6.56,83.07,-0.207,98.956
6.72,84.66,-0.204,98.923
6.88,86.26,-0.200,98.889
7.04,87.85,-0.197,98.854
7.20,89.44,-0.194,98.819
7.36,91.03,-0.192,98.783
7.52,92.62,-0.190,98.746
7.68,94.21,-0.187,98.709
7.84,95.81,-0.186,98.671
8.00,97.40,-0.183,98.633
8.16,98.99,-0.182,98.595
8.32,100.58,-0.181,98.556
8.48,102.17,-0.179,98.517
8.64,103.76,-0.178,98.478
8.80,105.36,-0.177,98.439
8.96,106.95,-0.176,98.399
9.12,108.55,-0.175,98.360
9.28,110.14,-0.174,98.321
9.44,111.74,-0.172,98.282
9.60,113.33,-0.171,98.244
9.76,114.93,-0.169,98.206
9.92,116.52,-0.168,98.168
10.08,118.12,-0.167,98.130
10.24,119.71,-0.165,98.093
10.40,121.31,-0.164,98.056
10.56,122.91,-0.162,98.020
10.72,124.50,-0.160,97.985
10.88,126.10,-0.159,97.950
11.04,127.69,-0.156,97.916
11.20,129.29,-0.154,97.882
11.36,130.89,-0.152,97.850
11.52,132.48,-0.149,97.818
11.68,134.08,-0.146,97.787
11.84,135.67,-0.144,97.757
12.00,137.27,-0.141,97.727
12.16,138.87,-0.138,97.699
12.32,140.47,-0.134,97.672
12.48,142.06,-0.131,97.645
12.64,143.66,-0.128,97.619
12.80,145.26,-0.125,97.594
12.96,146.85,-0.121,97.570
13.12,148.45,-0.117,97.547
13.28,150.05,-0.113,97.525
13.44,151.64,-0.108,97.504
13.60,153.24,-0.104,97.484
13.76,154.83,-0.100,97.465
13.92,156.43,-0.095,97.447
14.08,158.03,-0.089,97.429
14.24,159.63,-0.085,97.412
14.40,161.22,-0.080,97.396
14.56,162.82,-0.076,97.381
14.72,164.41,-0.070,97.367
14.88,166.01,-0.066,97.354
15.04,167.60,-0.061,97.341
15.20,169.20,-0.056,97.328
15.36,170.79,-0.052,97.317
15.52,172.39,-0.046,97.305
15.68,173.98,-0.042,97.295
15.84,175.57,-0.037,97.285
16.00,177.17,-0.032,97.275
16.16,178.76,-0.026,97.266
16.32,180.36,-0.022,97.257
16.48,181.95,-0.017,97.249
16.64,183.54,-0.011,97.240
16.80,185.14,-0.007,97.232
16.96,186.73,-0.003,97.225
17.12,188.33,0.001,97.217
17.28,189.92,0.006,97.209
17.44,191.51,0.011,97.202
17.60,193.11,0.015,97.194
17.76,194.70,0.019,97.187
17.92,196.29,0.023,97.179
18.08,197.89,0.028,97.171
18.24,199.48,0.032,97.164
18.40,201.07,0.036,97.156
18.56,202.67,0.039,97.148
18.72,204.26,0.043,97.139
18.88,205.86,0.047,97.130
19.04,207.45,0.051,97.121
19.20,209.05,0.055,97.112
19.36,210.64,0.059,97.102
19.52,212.24,0.063,97.091
19.68,213.83,0.065,97.080
19.84,215.43,0.070,97.068
20.00,217.02,0.074,97.056
20.16,218.62,0.078,97.043
20.32,220.21,0.081,97.029
20.48,221.81,0.085,97.014
20.64,223.40,0.089,96.998
20.80,225.00,0.094,96.981
20.96,226.59,0.098,96.963
21.12,228.19,0.102,96.944
21.28,229.78,0.106,96.923
21.44,231.37,0.110,96.900
21.60,232.97,0.115,96.876
21.76,234.56,0.119,96.850
21.92,236.16,0.122,96.821
22.08,237.76,0.127,96.790
22.24,239.35,0.131,96.757
22.40,240.95,0.135,96.721
22.56,242.54,0.139,96.682
22.72,244.14,0.144,96.639
22.88,245.73,0.148,96.593
23.04,247.33,0.152,96.541
23.20,248.93,0.157,96.485
23.36,250.52,0.161,96.424
23.52,252.12,0.165,96.357
23.68,253.72,0.169,96.283
23.84,255.31,0.174,96.202
24.00,256.91,0.178,96.113
24.16,258.50,0.183,96.011
24.32,260.10,0.187,95.889
24.48,261.70,0.192,95.751
24.64,263.30,0.196,95.599
24.80,264.89,0.201,95.434
24.96,266.49,0.207,95.256
25.12,268.09,0.212,95.065
25.28,269.69,0.217,94.859
25.44,271.28,0.222,94.636
25.60,272.88,0.228,94.398
25.76,274.48,0.233,94.143
25.92,276.08,0.239,93.869
26.08,277.68,0.245,93.576
26.24,279.28,0.250,93.264
26.40,280.88,0.256,92.935
26.56,282.48,0.262,92.588
26.72,284.08,0.268,92.222
26.88,285.68,0.274,91.841
27.04,287.28,0.281,91.442
27.20,288.88,0.286,91.028
27.36,290.48,0.294,90.601
27.52,292.08,0.300,90.159
27.68,293.68,0.307,89.704
27.84,295.28,0.314,89.236
28.00,296.89,0.322,88.754
28.16,298.49,0.330,88.258
28.32,300.09,0.338,87.744
28.48,301.70,0.346,87.212
28.64,303.30,0.355,86.658
28.80,304.91,0.364,86.078
28.96,306.52,0.372,85.467
29.12,308.12,0.381,84.818
29.28,309.73,0.392,84.130
29.44,311.34,0.403,83.394
29.60,312.95,0.413,82.604
29.76,314.56,0.424,81.752
29.92,316.17,0.436,80.833
30.08,317.78,0.449,79.842
30.24,319.40,0.464,78.772
30.40,321.01,0.480,77.625
30.56,322.63,0.497,76.401
30.72,324.25,0.518,75.107
30.88,325.87,0.543,73.754
31.04,327.50,0.573,72.365
31.20,329.14,0.609,70.971
31.36,330.79,0.651,69.605
31.52,332.44,0.699,68.305
31.68,334.09,0.751,67.104
31.84,335.75,0.803,66.029
32.00,337.40,0.852,65.089
32.16,339.04,0.894,64.288
32.32,340.68,0.930,63.614
32.48,342.30,0.959,63.054
32.64,343.93,0.984,62.588
32.80,345.55,1.004,62.202
32.96,347.16,1.022,61.878
33.12,348.78,1.039,61.602
33.28,350.40,1.058,61.363
33.44,352.03,1.082,61.151
33.60,353.66,1.114,60.957
33.76,355.30,1.156,60.775
33.92,356.96,1.209,60.599
34.08,358.63,1.268,60.424
34.24,360.29,1.321,60.254
34.40,361.94,1.365,60.085
34.56,363.57,1.397,59.918
34.72,365.19,1.417,59.753
34.88,366.79,1.428,59.588
35.04,368.39,1.432,59.423
35.20,369.98,1.433,59.258
35.36,371.57,1.429,59.093
35.52,373.16,1.423,58.927
35.68,374.74,1.415,58.760
35.84,376.33,1.408,58.592
36.00,377.92,1.401,58.423
36.16,379.51,1.394,58.253
36.32,381.10,1.388,58.081
36.48,382.69,1.383,57.908
36.64,384.28,1.378,57.733
36.80,385.88,1.374,57.557
36.96,387.47,1.369,57.379
37.12,389.07,1.367,57.200
37.28,390.67,1.364,57.018
37.44,392.26,1.362,56.836
37.60,393.86,1.359,56.651
37.76,395.46,1.358,56.466
37.92,397.06,1.356,56.280
38.08,398.65,1.355,56.090
38.24,400.25,1.354,55.900
38.40,401.85,1.353,55.708
38.56,403.45,1.353,55.515
38.72,405.05,1.353,55.320
38.88,406.65,1.352,55.123
39.04,408.26,1.352,54.925
39.20,409.86,1.352,54.725
39.36,411.46,1.352,54.524
39.52,413.06,1.352,54.321
39.68,414.66,1.353,54.116
39.84,416.26,1.353,53.910
40.00,417.86,1.354,53.702
40.16,419.47,1.355,53.494
40.32,421.07,1.356,53.283
40.48,422.67,1.357,53.071
40.64,424.27,1.358,52.857
40.80,425.87,1.358,52.641
40.96,427.48,1.359,52.425
41.12,429.08,1.360,52.206
41.28,430.68,1.360,51.986
41.44,432.28,1.359,51.765
41.60,433.88,1.359,51.541
41.76,435.48,1.357,51.316
41.92,437.08,1.355,51.090
42.08,438.68,1.354,50.861
42.24,440.27,1.352,50.630
42.40,441.87,1.350,50.397
42.56,443.47,1.349,50.162
42.72,445.07,1.347,49.923
42.88,446.67,1.346,49.681
43.04,448.27,1.344,49.438
43.20,449.87,1.342,49.191
43.36,451.47,1.341,48.942
43.52,453.07,1.341,48.689
43.68,454.67,1.340,48.433
43.84,456.27,1.339,48.174
44.00,457.87,1.338,47.912
44.16,459.47,1.338,47.645
44.32,461.07,1.337,47.375
44.48,462.67,1.335,47.100
44.64,464.27,1.334,46.822
44.80,465.87,1.334,46.539
44.96,467.47,1.334,46.250
45.12,469.07,1.334,45.956
45.28,470.68,1.334,45.656
45.44,472.28,1.335,45.350
45.60,473.88,1.336,45.038
45.76,475.48,1.338,44.715
45.92,477.09,1.340,44.383
46.08,478.69,1.344,44.047
46.24,480.30,1.351,43.704
46.40,481.91,1.358,43.350
46.56,483.52,1.367,42.979
46.72,485.14,1.380,42.607
46.88,486.75,1.395,42.224
47.04,488.37,1.413,41.833
47.20,490.00,1.440,41.412
47.36,491.63,1.473,40.980
47.52,,,40.536
47.55,,,40.451